Wavelength	62231 <10	sd	62231 10-20	sd	62231 20-45	sd	62231<45	sd
300.00	0.092841	0.0000	0.080273	0.076520	0.075321	0.076303	0.080470	0.076467
305.00	0.093910		0.082773	0.051275	0.076202	0.051222	0.081505	0.051272
310.00	0.095422		0.082695	0.037313	0.078402	0.037355	0.083439	0.037286
315.00	0.097198		0.085649	0.027814	0.079905	0.027989	0.084241	0.027943
320.00	0.098595		0.086475	0.021806	0.081652	0.021845	0.085435	0.021828
325.00	0.099891		0.088331	0.017608	0.082964	0.017491	0.085982	0.017351
330.00	0.10091		0.088747	0.014112	0.083915	0.014277	0.087425	0.014126
335.00	0.10243		0.090201	0.011949	0.085032	0.011867	0.087694	0.012022
340.00	0.10470		0.091819	0.010041	0.086196	0.010150	0.089099	0.010070
345.00	0.10533		0.092982	0.0083180	0.087350	0.0085120	0.090794	0.0083240
350.00	0.10682		0.094117	0.0070500	0.088643	0.0068710	0.091184	0.0068020
355.00	0.10904		0.095364	0.0060070	0.090032	0.0061000	0.092593	0.0059890
360.00	0.11122		0.097705	0.0050160	0.091285	0.0051690	0.094296	0.0050010
365.00	0.11313		0.098996	0.0042200	0.092602	0.0044630	0.095966	0.0042550
370.00	0.11444		0.10062	0.0036890	0.093881	0.0038960	0.097761	0.0037430
375.00	0.11682		0.10202	0.0033500	0.095226	0.0033900	0.098839	0.0033490
380.00	0.11881		0.10354	0.0031200	0.096527	0.0033090	0.10084	0.0031640
385.00	0.12089		0.10533	0.0031200	0.097837	0.0032700	0.10217	0.0031480
390.00	0.12272		0.10669	0.0033990	0.099128	0.0035520	0.10427	0.0034270
395.00	0.12417		0.10855	0.0042320	0.10034	0.0043560	0.10660	0.0042920
400.00	0.12765		0.11096	0.0018680	0.10140	0.0021900	0.10685	0.0020210
405.00	0.12926		0.11224	0.0015660	0.10242	0.0018780	0.10825	0.0016730
410.00	0.13147		0.11385	0.0013080	0.10337	0.0016790	0.10941	0.0014640
415.00	0.13330		0.11561	0.0011360	0.10427	0.0014730	0.11101	0.0013100
420.00	0.13521		0.11689	0.0010320	0.10518	0.0013610	0.11252	0.0011760
425.00	0.13737		0.11849	0.00099300	0.10622	0.0013850	0.11381	0.0012400
430.00	0.13925		0.11981	0.0010030	0.10720	0.0012910	0.11552	0.0011910
435.00	0.14157		0.12148	0.00098500	0.10806	0.0012460	0.11681	0.0011740
440.00	0.14311		0.12275	0.00090400	0.10898	0.0013400	0.11845	0.0011690
445.00	0.14530		0.12430	0.00087400	0.10979	0.0011880	0.11946	0.0011810
450.00	0.14683		0.12553	0.00084500	0.11057	0.0011890	0.12101	0.0011820
455.00	0.14916		0.12713	0.00084900	0.11136	0.0010650	0.12230	0.0010290
460.00	0.15060		0.12836	0.00090700	0.11215	0.0012750	0.12371	0.0010790
465.00	0.15268		0.12991	0.00090500	0.11290	0.0012550	0.12510	0.0010040
470.00	0.15440		0.13121	0.00090300	0.11381	0.0010170	0.12653	0.0010440
475.00	0.15637		0.13267	0.00080100	0.11470	0.00096600	0.12777	0.0012570
480.00	0.15810		0.13405	0.00087400	0.11556	0.0010230	0.12901	0.0013020
485.00	0.15985		0.13527	0.00090500	0.11630	0.0011420	0.13035	0.0013150
490.00	0.16182		0.13691	0.00097800	0.11699	0.0013630	0.13146	0.0013980
495.00	0.16334		0.13812	0.0010860	0.11761	0.0010220	0.13285	0.0015130
500.00	0.16541		0.13974	0.0011930	0.11801	0.00099900	0.13397	0.0014880
505.00	0.16694		0.14078	0.0012210	0.11853	0.0010590	0.13528	0.0016220
510.00	0.16897		0.14251	0.0011830	0.11918	0.0010810	0.13639	0.0016070
515.00	0.17085		0.14410	0.0012480	0.11987	0.0011470	0.13759	0.0016700
520.00	0.17248		0.14527	0.0012440	0.12070	0.0011790	0.13893	0.0016660
525.00	0.17470		0.14678	0.0014220	0.12156	0.0011440	0.13998	0.0018950
530.00	0.17596		0.14810	0.0012250	0.12237	0.0011160	0.14160	0.0018460
535.00	0.17810		0.14957	0.0012080	0.12324	0.0012020	0.14265	0.0021460
540.00	0.17935		0.15071	0.0011740	0.12408	0.0011460	0.14407	0.0022270
545.00	0.18137		0.15203	0.0011680	0.12483	0.0011580	0.14540	0.0023640
550.00	0.18242		0.15296	0.0011830	0.12577	0.00099700	0.14649	0.0024320
555.00	0.18416		0.15449	0.0012520	0.12651	0.0010630	0.14752	0.0017690
560.00	0.18584		0.15569	0.0010000	0.12709	0.00099000	0.14872	0.0018490
565.00	0.18734		0.15699	0.0010400	0.12771	0.0010380	0.14966	0.0017970
570.00	0.18907		0.15819	0.00095100	0.12839	0.0011660	0.15065	0.0017720
575.00	0.19062		0.15936	0.00093100	0.12902	0.0013040	0.15174	0.0020460
580.00	0.19241		0.16060	0.00088700	0.12984	0.0013630	0.15266	0.0021080
585.00	0.19364		0.16166	0.00092100	0.13077	0.0013170	0.15404	0.0025030
590.00	0.19538		0.16287	0.00088700	0.13164	0.0011220	0.15483	0.0025090
595.00	0.19686		0.16407	0.00087600	0.13250	0.0013140	0.15645	0.0025770
600.00	0.19863		0.16511	0.00095700	0.13343	0.0012590	0.15709	0.0025620
605.00	0.20031		0.16643	0.00083300	0.13428	0.0014590	0.15832	0.0021770
610.00	0.20145		0.16768	0.00092900	0.13507	0.0013640	0.15965	0.0022450
615.00	0.20298		0.16873	0.0010300	0.13592	0.0014460	0.16055	0.0015680
620.00	0.20428		0.16950	0.00093900	0.13664	0.0013930	0.16196	0.0015740
625.00	0.20597		0.17084	0.0010330	0.13706	0.0014680	0.16283	0.0018710
630.00	0.20661		0.17152	0.0010390	0.13754	0.0014220	0.16400	0.0018570
635.00	0.20835		0.17252	0.0011120	0.13805	0.0017300	0.16505	0.0025120
640.00	0.20924		0.17333	0.0010930	0.13854	0.0017470	0.16635	0.0025200
645.00	0.21090		0.17462	0.0010290	0.13898	0.0016670	0.16736	0.0022080
650.00	0.21197		0.17536	0.0010050	0.13956	0.0017470	0.16844	0.0022060
655.00	0.21354		0.17657	0.00091300	0.14011	0.0016590	0.16926	0.0014280
660.00	0.21473		0.17759	0.00094400	0.14070	0.0016630	0.17002	0.0014610
665.00	0.21594		0.17850	0.0010130	0.14119	0.0015140	0.17089	0.0012110
670.00	0.21736		0.17961	0.0010020	0.14173	0.0015780	0.17151	0.0012570
675.00	0.21856		0.18057	0.0010780	0.14218	0.0018660	0.17260	0.0012850
680.00	0.22020		0.18169	0.0011490	0.14251	0.0019400	0.17322	0.0012880
685.00	0.22101		0.18253	0.0012280	0.14278	0.0018330	0.17446	0.0016900
690.00	0.22288		0.18389	0.0013640	0.14289	0.0018290	0.17508	0.0017250
695.00	0.22392		0.18464	0.0014640	0.14326	0.0012750	0.17626	0.0021640
700.00	0.22517		0.18600	0.0013980	0.14380	0.0013190	0.17702	0.0021240
705.00	0.22646		0.18687	0.0017110	0.14434	0.0017200	0.17767	0.0022110
710.00	0.22721		0.18781	0.0015780	0.14485	0.0017120	0.17868	0.0022810
715.00	0.22891		0.18916	0.0013810	0.14569	0.0022230	0.17947	0.0017100
720.00	0.22990		0.18999	0.0016170	0.14622	0.0019930	0.18071	0.0018200
725.00	0.23040		0.19023	0.0016580	0.14677	0.0019710	0.18155	0.0018460
730.00	0.23149		0.19118	0.0013210	0.14727	0.0019190	0.18257	0.0018710
735.00	0.23302		0.19216	0.0016240	0.14789	0.0020410	0.18329	0.0018260
740.00	0.23395		0.19303	0.0014350	0.14832	0.0021210	0.18417	0.0017780
745.00	0.23505		0.19413	0.0013720	0.14887	0.0023330	0.18522	0.0014750
750.00	0.23668		0.19519	0.0012240	0.14924	0.0023790	0.18582	0.0014740
755.00	0.23726		0.19599	0.0011730	0.14972	0.0022630	0.18712	0.0015230
760.00	0.23889		0.19689	0.0012280	0.15015	0.0022680	0.18763	0.0015900
765.00	0.23980		0.19782	0.0013430	0.15064	0.0022520	0.18868	0.0018560
770.00	0.24140		0.19885	0.0013330	0.15105	0.0025590	0.18907	0.0018650
775.00	0.24206		0.19936	0.0013040	0.15151	0.0021910	0.19022	0.0015070
780.00	0.24332		0.20013	0.0013540	0.15188	0.0020910	0.19082	0.0015750
785.00	0.24466		0.20102	0.0014180	0.15226	0.0017840	0.19168	0.0018660
790.00	0.24549		0.20158	0.0016110	0.15264	0.0015900	0.19276	0.0019050
795.00	0.24715		0.20231	0.0015550	0.15305	0.0020260	0.19294	0.0016770
800.00	0.24774		0.20279	0.0014680	0.15351	0.0024910	0.19386	0.0017650
805.00	0.24909		0.20345	0.0015920	0.15415	0.0025640	0.19463	0.0016390
810.00	0.25029		0.20413	0.0014850	0.15474	0.0025600	0.19518	0.0015940
815.00	0.25064		0.20432	0.0015840	0.15528	0.0019360	0.19595	0.0018470
820.00	0.25234		0.20525	0.0015000	0.15555	0.0021070	0.19597	0.0017750
825.00	0.25287		0.20566	0.0016200	0.15587	0.0025260	0.19724	0.0018340
830.00	0.25449		0.20636	0.0016990	0.15587	0.0021530	0.19723	0.0018770
835.00	0.25488		0.20692	0.0017750	0.15607	0.0020170	0.19805	0.0018590
840.00	0.25626		0.20775	0.0018790	0.15626	0.0022070	0.19818	0.0018530
845.00	0.25706		0.20786	0.0020200	0.15667	0.0017990	0.19868	0.0020130
850.00	0.25766		0.20824	0.0021700	0.15707	0.0025180	0.19938	0.0022760
855.00	0.25821		0.20892	0.0019410	0.15779	0.0025500	0.20004	0.0020970
860.00	0.25918		0.20905	0.0019580	0.15791	0.0024760	0.20033	0.0020960
865.00	0.25982		0.20960	0.0019770	0.15826	0.0025600	0.20132	0.0019830
870.00	0.26075		0.20986	0.0019910	0.15819	0.0024600	0.20180	0.0019560
875.00	0.26109		0.20970	0.0017630	0.15791	0.0024450	0.20169	0.0017120
880.00	0.26211		0.21013	0.0018070	0.15844	0.0025870	0.20143	0.0017600
885.00	0.26254		0.21052	0.0016430	0.15816	0.0023780	0.20272	0.0017380
890.00	0.26357		0.21070	0.0015430	0.15873	0.0022930	0.20219	0.0016110
895.00	0.26411		0.21107	0.0014540	0.15905	0.0025090	0.20355	0.0014930
900.00	0.26527		0.21145	0.0014800	0.15901	0.0023160	0.20367	0.0016040
905.00	0.26625		0.21210	0.0018620	0.16017	0.0025860	0.20393	0.0020910
910.00	0.26647		0.21254	0.0019890	0.16002	0.0025330	0.20456	0.0018260
915.00	0.26748		0.21258	0.0019430	0.16021	0.0025760	0.20488	0.0023670
920.00	0.26792		0.21324	0.0015730	0.16090	0.0024340	0.20551	0.0024400
925.00	0.26847		0.21321	0.0017050	0.16134	0.0022070	0.20657	0.0015500
930.00	0.26942		0.21407	0.0017080	0.16120	0.0027960	0.20658	0.0014140
935.00	0.27017		0.21425	0.0017170	0.16222	0.0023160	0.20732	0.0018920
940.00	0.27128		0.21561	0.0018380	0.16234	0.0021450	0.20767	0.0017990
945.00	0.27210		0.21599	0.0017470	0.16222	0.0021850	0.20884	0.0014900
950.00	0.27263		0.21636	0.0017390	0.16280	0.0024310	0.20957	0.0014990
955.00	0.27402		0.21670	0.0018450	0.16373	0.0024750	0.20975	0.0017730
960.00	0.27410		0.21763	0.0018970	0.16394	0.0023800	0.21056	0.0017200
965.00	0.27561		0.21864	0.0019130	0.16490	0.0020920	0.21132	0.0014290
970.00	0.27635		0.21912	0.0020430	0.16534	0.0020870	0.21240	0.0014090
975.00	0.27734		0.22038	0.0018000	0.16554	0.0022280	0.21281	0.0015820
980.00	0.27810		0.22068	0.0020900	0.16600	0.0021560	0.21349	0.0016940
985.00	0.27921		0.22178	0.0018580	0.16641	0.0021970	0.21482	0.0014280
990.00	0.27995		0.22248	0.0020100	0.16643	0.0021390	0.21584	0.0016040
995.00	0.28098		0.22329	0.0020840	0.16809	0.0026350	0.21619	0.0020600
1000.0	0.28155		0.22379	0.0020320	0.16801	0.0022880	0.21690	0.0017320
1005.0	0.28306		0.22482	0.0021990	0.16958	0.0021410	0.21774	0.0019360
1010.0	0.28342		0.22569	0.0022710	0.16928	0.0023900	0.21919	0.0018640
1015.0	0.28479		0.22705	0.0021270	0.17003	0.0025260	0.21935	0.0015940
1020.0	0.28495		0.22740	0.0023640	0.17055	0.0024240	0.22024	0.0016120
1025.0	0.28634		0.22837	0.0022820	0.17112	0.0022340	0.22099	0.0020790
1030.0	0.28723		0.22939	0.0023220	0.17156	0.0021660	0.22190	0.0019400
1035.0	0.28848		0.23068	0.0023490	0.17259	0.0023720	0.22291	0.0015520
1040.0	0.28915		0.23114	0.0024940	0.17276	0.0022070	0.22347	0.0016150
1045.0	0.28922		0.23188	0.0026110	0.17373	0.0021480	0.22434	0.0018900
1050.0	0.29099		0.23380	0.0024020	0.17427	0.0024460	0.22532	0.0022210
1055.0	0.29207		0.23446	0.0021870	0.17434	0.0025740	0.22623	0.0015010
1060.0	0.29316		0.23517	0.0027490	0.17526	0.0024290	0.22738	0.0015950
1065.0	0.29383		0.23635	0.0025180	0.17625	0.0021310	0.22827	0.0017600
1070.0	0.29449		0.23709	0.0023390	0.17661	0.0024710	0.22868	0.0019710
1075.0	0.29570		0.23789	0.0024170	0.17822	0.0022380	0.22964	0.0015350
1080.0	0.29744		0.23903	0.0024120	0.17868	0.0022670	0.23037	0.0015170
1085.0	0.29801		0.24012	0.0022840	0.17963	0.0020840	0.23137	0.0018150
1090.0	0.29897		0.24088	0.0023300	0.18073	0.0019710	0.23214	0.0018870
1095.0	0.29971		0.24184	0.0023590	0.18160	0.0023650	0.23273	0.0015750
1100.0	0.30124		0.24295	0.0023850	0.18224	0.0025960	0.23358	0.0017220
1105.0	0.30199		0.24384	0.0026820	0.18354	0.0025150	0.23452	0.0017350
1110.0	0.30304		0.24508	0.0024620	0.18373	0.0022430	0.23512	0.0018060
1115.0	0.30402		0.24598	0.0026410	0.18420	0.0024990	0.23660	0.0021290
1120.0	0.30494		0.24708	0.0022660	0.18533	0.0023530	0.23737	0.0021810
1125.0	0.30598		0.24828	0.0024280	0.18658	0.0023580	0.23766	0.0018900
1130.0	0.30727		0.24951	0.0022450	0.18724	0.0024460	0.23833	0.0020390
1135.0	0.30734		0.24998	0.0024360	0.18802	0.0023870	0.24008	0.0017970
1140.0	0.30885		0.25090	0.0025990	0.18886	0.0021390	0.24025	0.0017850
1145.0	0.30967		0.25174	0.0025500	0.18961	0.0022450	0.24071	0.0022350
1150.0	0.31085		0.25314	0.0026700	0.18940	0.0023860	0.24152	0.0019550
1155.0	0.31184		0.25392	0.0025680	0.19014	0.0021710	0.24293	0.0017260
1160.0	0.31287		0.25525	0.0025480	0.19076	0.0023020	0.24363	0.0019610
1165.0	0.31316		0.25583	0.0024110	0.19117	0.0022320	0.24461	0.0021170
1170.0	0.31447		0.25708	0.0023480	0.19205	0.0021780	0.24497	0.0023240
1175.0	0.31542		0.25725	0.0025120	0.19244	0.0024830	0.24595	0.0017180
1180.0	0.31632		0.25850	0.0025540	0.19327	0.0022120	0.24709	0.0018130
1185.0	0.31719		0.25894	0.0023640	0.19469	0.0023300	0.24743	0.0021570
1190.0	0.31812		0.26031	0.0022250	0.19511	0.0022720	0.24772	0.0020460
1195.0	0.31889		0.26092	0.0026470	0.19525	0.0022370	0.24859	0.0016420
1200.0	0.32004		0.26137	0.0023640	0.19616	0.0022770	0.24951	0.0017590
1205.0	0.32049		0.26229	0.0027510	0.19666	0.0024720	0.25047	0.0017920
1210.0	0.32056		0.26217	0.0026170	0.19735	0.0024270	0.25141	0.0018700
1215.0	0.32236		0.26400	0.0025860	0.19777	0.0022450	0.25125	0.0023930
1220.0	0.32302		0.26482	0.0023900	0.19836	0.0024110	0.25203	0.0025350
1225.0	0.32376		0.26575	0.0023590	0.19895	0.0025200	0.25308	0.0017250
1230.0	0.32438		0.26637	0.0025150	0.19956	0.0023100	0.25385	0.0018140
1235.0	0.32532		0.26699	0.0022980	0.19973	0.0021220	0.25433	0.0022590
1240.0	0.32540		0.26762	0.0020660	0.20013	0.0025400	0.25503	0.0022690
1245.0	0.32671		0.26855	0.0021050	0.20061	0.0028500	0.25575	0.0016490
1250.0	0.32773		0.26977	0.0023780	0.20087	0.0026640	0.25694	0.0016750
1255.0	0.32912		0.26989	0.0022950	0.20151	0.0026650	0.25656	0.0022060
1260.0	0.32936		0.27110	0.0022720	0.20232	0.0024290	0.25784	0.0020850
1265.0	0.33061		0.27188	0.0022160	0.20298	0.0026220	0.25860	0.0021220
1270.0	0.33114		0.27269	0.0022980	0.20345	0.0024850	0.26006	0.0022940
1275.0	0.33235		0.27363	0.0021060	0.20367	0.0023380	0.25975	0.0020800
1280.0	0.33326		0.27417	0.0020370	0.20420	0.0025490	0.26033	0.0022250
1285.0	0.33386		0.27537	0.0021820	0.20564	0.0024730	0.26159	0.0020620
1290.0	0.33505		0.27644	0.0021650	0.20645	0.0024630	0.26264	0.0018500
1295.0	0.33573		0.27752	0.0019940	0.20757	0.0023210	0.26310	0.0022200
1300.0	0.33721		0.27873	0.0021420	0.20827	0.0025920	0.26336	0.0022130
1305.0	0.33814		0.27991	0.0023680	0.20886	0.0023340	0.26535	0.0018540
1310.0	0.33882		0.28015	0.0020770	0.20957	0.0024510	0.26523	0.0016720
1315.0	0.33917		0.28110	0.0020650	0.21054	0.0026130	0.26620	0.0023520
1320.0	0.34130		0.28291	0.0019920	0.21096	0.0022710	0.26646	0.0023620
1325.0	0.34149		0.28392	0.0021760	0.21167	0.0024210	0.26827	0.0017960
1330.0	0.34279		0.28391	0.0020210	0.21244	0.0026260	0.26858	0.0018350
1335.0	0.34396		0.28575	0.0018960	0.21348	0.0025400	0.26971	0.0023560
1340.0	0.34561		0.28639	0.0018550	0.21365	0.0023640	0.26987	0.0021020
1345.0	0.34541		0.28707	0.0018170	0.21479	0.0027970	0.27171	0.0019110
1350.0	0.34588		0.28756	0.0018730	0.21527	0.0026590	0.27140	0.0018220
1355.0	0.34683		0.28874	0.0018710	0.21554	0.0028540	0.27220	0.0017180
1360.0	0.34780		0.28967	0.0018910	0.21656	0.0029530	0.27300	0.0018170
1365.0	0.34902		0.29090	0.0018300	0.21732	0.0027110	0.27345	0.0020140
1370.0	0.34973		0.29154	0.0019360	0.21759	0.0026270	0.27445	0.0022680
1375.0	0.35143		0.29338	0.0020080	0.21860	0.0028720	0.27530	0.0019680
1380.0	0.35207		0.29423	0.0019870	0.21865	0.0027310	0.27615	0.0019300
1385.0	0.35281		0.29492	0.0018500	0.22112	0.0026400	0.27677	0.0024640
1390.0	0.35287		0.29493	0.0019260	0.22219	0.0025570	0.27759	0.0023870
1395.0	0.35374		0.29579	0.0019650	0.22178	0.0027000	0.27754	0.0021490
1400.0	0.35373		0.29579	0.0018360	0.22284	0.0029700	0.27865	0.0019790
1405.0	0.35434		0.29618	0.0018560	0.22335	0.0025220	0.27893	0.0023650
1410.0	0.35526		0.29727	0.0019630	0.22435	0.0025520	0.28037	0.0024800
1415.0	0.35660		0.29858	0.0018550	0.22507	0.0024730	0.27998	0.0024450
1420.0	0.35770		0.29930	0.0017830	0.22589	0.0024660	0.28140	0.0024300
1425.0	0.35883		0.30036	0.0018780	0.22629	0.0025950	0.28214	0.0021230
1430.0	0.35980		0.30194	0.0019090	0.22704	0.0028870	0.28351	0.0021160
1435.0	0.36053		0.30317	0.0019220	0.22788	0.0023790	0.28371	0.0024600
1440.0	0.36106		0.30336	0.0019900	0.22855	0.0025250	0.28418	0.0025010
1445.0	0.36135		0.30378	0.0019250	0.22922	0.0026830	0.28564	0.0018420
1450.0	0.36258		0.30447	0.0019850	0.22994	0.0024210	0.28572	0.0018040
1455.0	0.36257		0.30536	0.0024760	0.23091	0.0027350	0.28653	0.0027710
1460.0	0.36456		0.30707	0.0021740	0.23161	0.0025520	0.28712	0.0024760
1465.0	0.36524		0.30747	0.0022480	0.23308	0.0023340	0.28827	0.0018410
1470.0	0.36640		0.30822	0.0025210	0.23371	0.0028060	0.28858	0.0017920
1475.0	0.36699		0.30938	0.0024610	0.23457	0.0022480	0.28943	0.0027410
1480.0	0.36836		0.31017	0.0023170	0.23529	0.0023890	0.28957	0.0029320
1485.0	0.36808		0.31087	0.0027720	0.23602	0.0024460	0.29143	0.0018370
1490.0	0.36975		0.31185	0.0027960	0.23635	0.0028700	0.29116	0.0018910
1495.0	0.36970		0.31199	0.0026750	0.23696	0.0026090	0.29212	0.0030810
1500.0	0.37099		0.31293	0.0028110	0.23742	0.0022360	0.29252	0.0030800
1505.0	0.37142		0.31336	0.0028640	0.23799	0.0023650	0.29360	0.0018720
1510.0	0.37194		0.31405	0.0028170	0.23834	0.0025910	0.29425	0.0020960
1515.0	0.37330		0.31526	0.0029800	0.23901	0.0028000	0.29407	0.0025180
1520.0	0.37348		0.31563	0.0032570	0.23934	0.0024270	0.29466	0.0028370
1525.0	0.37436		0.31593	0.0034420	0.23973	0.0026260	0.29578	0.0020500
1530.0	0.37435		0.31713	0.0027960	0.23990	0.0027400	0.29664	0.0018640
1535.0	0.37620		0.31804	0.0031350	0.24054	0.0023870	0.29622	0.0028630
1540.0	0.37606		0.31830	0.0030090	0.24115	0.0026850	0.29715	0.0028550
1545.0	0.37698		0.31932	0.0035150	0.24202	0.0022320	0.29812	0.0022290
1550.0	0.37723		0.31977	0.0033020	0.24310	0.0022640	0.29916	0.0022070
1555.0	0.37909		0.32102	0.0030480	0.24469	0.0024560	0.29950	0.0032310
1560.0	0.37794		0.32119	0.0033330	0.24536	0.0023190	0.29994	0.0031840
1565.0	0.37957		0.32170	0.0035770	0.24582	0.0024590	0.30073	0.0021260
1570.0	0.37917		0.32238	0.0031300	0.24630	0.0024760	0.30103	0.0022460
1575.0	0.38038		0.32303	0.0032090	0.24613	0.0025820	0.30140	0.0031060
1580.0	0.38061		0.32369	0.0033340	0.24652	0.0027410	0.30237	0.0029950
1585.0	0.38142		0.32439	0.0035690	0.24721	0.0023440	0.30232	0.0021790
1590.0	0.38253		0.32478	0.0031410	0.24769	0.0022820	0.30273	0.0021630
1595.0	0.38287		0.32500	0.0029560	0.24864	0.0024380	0.30405	0.0028230
1600.0	0.38405		0.32635	0.0031780	0.24923	0.0025910	0.30429	0.0029450
1605.0	0.38434		0.32712	0.0034630	0.24989	0.0024490	0.30600	0.0027760
1610.0	0.38561		0.32773	0.0034760	0.25041	0.0025500	0.30529	0.0028500
1615.0	0.38612		0.32855	0.0037040	0.25096	0.0023050	0.30654	0.0021330
1620.0	0.38696		0.32919	0.0034760	0.25084	0.0026290	0.30626	0.0022670
1625.0	0.38658		0.32909	0.0032080	0.25085	0.0025350	0.30749	0.0031530
1630.0	0.38789		0.33091	0.0032720	0.25089	0.0027820	0.30726	0.0031530
1635.0	0.38786		0.33097	0.0033240	0.25105	0.0027520	0.30787	0.0020920
1640.0	0.38918		0.33143	0.0031760	0.25141	0.0023560	0.30838	0.0022530
1645.0	0.38934		0.33261	0.0029330	0.25227	0.0028470	0.30962	0.0032160
1650.0	0.38924		0.33253	0.0025330	0.25335	0.0027770	0.31056	0.0025360
1655.0	0.39045		0.33383	0.0025470	0.25223	0.0030230	0.31033	0.0028470
1660.0	0.39065		0.33424	0.0024440	0.25346	0.0028900	0.31075	0.0027450
1665.0	0.39160		0.33351	0.0025710	0.25381	0.0027930	0.31244	0.0027480
1670.0	0.39255		0.33407	0.0024540	0.25390	0.0028790	0.31283	0.0027340
1675.0	0.39419		0.33459	0.0022220	0.25438	0.0026670	0.31279	0.0033590
1680.0	0.39500		0.33516	0.0021730	0.25473	0.0029150	0.31312	0.0033260
1685.0	0.39594		0.33521	0.0022740	0.25516	0.0026640	0.31428	0.0025720
1690.0	0.39687		0.33601	0.0020520	0.25576	0.0027820	0.31422	0.0026120
